File: Data/3-Raman/maps/bu20-g-ff1-fi01_cls_carbonic phase.txt
#Imported=	29.03.2022 09:48:39
#Correction:Norma=	29.03.2022 10:00:12
#Data Range:Extract=	29.03.2022 10:00:58
#Math:AB=	29.03.2022 10:01:33
#Edit:Shape=	29.03.2022 10:02:32
#Edit:Shape=	29.03.2022 10:02:33
#Edit:Shape=	29.03.2022 10:02:37
#Edit:Shape=	29.03.2022 10:02:39
#Edit:Shape=	29.03.2022 10:02:40
#Edit:Shape=	29.03.2022 10:02:41
218.528	3.63072
236.776	4.83205
254.987	6.41203
273.164	4.83205
291.305	3.65171
309.409	1.6721
327.477	-1.0289
345.513	-0.586174
363.51	-1.29135
381.473	0.825619
399.401	0.442188
417.294	3.46768
435.152	3.80225
452.976	2.36058
470.765	0.669958
488.519	1.199
506.237	1.96411
523.923	2.95919
541.572	1.9085
559.19	1.7098
576.771	2.09369
594.319	2.46209
611.835	2.84051
629.315	2.29995
646.762	1.15446
664.175	2.53371
681.555	1.63562
698.901	3.49496
716.212	1.55466
733.493	1.98004
750.74	1.59922
767.952	0.969682
785.133	0.0921168
802.28	0.0921168
819.394	1.00186
836.478	2.16031
853.527	1.91663
870.544	1.02478
887.528	1.11506
904.481	1.43407
921.401	0.961028
938.287	0.789116
955.144	0.236635
971.968	1.04801
988.759	1.76651
1005.52	1.07999
1022.25	1.64006
1038.94	0.952249
1055.61	1.6721
1072.25	3.38017
1088.85	1.76907
1105.42	0.31155
1121.96	0.700054
1138.47	0.143618
1154.95	4.00122
1171.4	0.962825
1187.81	2.94191
1204.2	2.57669
1220.55	4.98637
1236.88	8.03683
1253.17	22.0762
1269.44	46.6003
1285.67	267.174
1301.87	24.4058
1318.05	17.4751
1334.19	16.6625
1350.3	17.0047
1366.39	37.8489
1382.44	481.324
1398.46	63.6216
1414.46	34.8278
1430.42	12.3632
1446.36	6.87991
1462.27	4.55779
1478.14	3.08186
1493.99	2.93605
1509.81	3.62262
1525.6	2.79951
1541.36	2.47702
1557.09	2.65332
1572.79	1.37881
1588.47	2.72901
1604.11	2.47967
1619.73	2.56204
1635.32	1.67767
1650.88	3.00317
1666.41	3.04174
1681.91	2.69352
1697.38	2.82489
1712.83	2.53188
1728.25	1.39036
1743.64	0.882061
1759	2.87671
1774.34	3.50858
1789.65	2.37222
1804.93	2.48735
1820.18	2.94338
1835.4	1.72886
1850.6	3.39034
1865.77	2.71815
1880.91	2.56154
1896.03	3.44928
1911.11	2.49105
1926.18	2.3325
1941.21	2.24007
1956.22	1.84488
1971.2	3.04569
1986.15	3.22494
2001.08	2.81671
2015.98	2.98649
2030.85	3.38427
2045.7	3.36941
2060.52	2.95221
2075.31	2.63712
2090.08	2.73115
2104.82	2.53553
2119.54	2.00076
2134.23	3.26445
2148.89	2.05508
2163.53	2.40241
2178.14	2.97267
2192.73	2.99524
2207.29	2.3146
2221.82	2.71282
2236.33	3.15041
2250.81	3.56162
2265.27	4.23811
2279.7	3.95057
2294.11	2.61315
2308.49	3.25235
2322.85	12.7801
2337.18	5.7384
2351.49	2.94427
2365.77	3.43449
2380.02	3.14633
2394.25	3.05254
2408.46	2.97046
2422.64	2.29308
2436.8	2.34148
2450.93	3.03302
2465.04	1.96004
2479.13	2.54988
2493.18	3.68539
2507.22	2.8805
2521.23	2.7388
2535.21	3.11579
2549.18	2.9333
2563.12	2.81083
2577.03	3.46553
2590.92	3.81685
2604.79	2.78676
2618.63	2.65294
2632.45	3.18312
2646.24	2.29364
2660.01	2.3117
2673.76	3.40335
2687.48	2.72805
2701.18	2.77863
2714.86	2.18507
2728.51	2.36639
2742.14	1.21623
2755.75	1.97186
2769.33	1.47275
2782.89	1.6833
2796.43	1.95383
2809.95	1.64918
2823.44	2.46851
2836.9	2.58961
2850.35	2.23025
2863.77	1.97119
2877.17	2.20153
2890.55	2.20547
2903.91	2.41749
2917.24	3.18035
2930.55	2.67756
2943.83	2.08633
2957.1	1.93705
2970.34	2.90913
2983.56	2.23221
2996.76	2.4449
3009.94	2.29536
3023.09	1.60075
3036.22	1.70862
3049.33	1.94237
3062.42	1.66467
3075.48	2.51465
3088.53	2.87133
3101.55	2.25337
3114.55	1.57547
3127.53	2.84719
3140.49	2.23571
3153.42	0.991349
3166.34	2.63573
3179.23	2.56657
3192.1	1.38885
3204.95	1.7224
3217.78	1.71856
3230.59	1.35829
3243.37	1.22079
3256.14	1.71381
3268.88	1.89715
3281.6	1.38608
3294.31	1.97376
3306.99	0.670248
3319.65	1.48709
3332.28	0.713711
3344.9	1.29386
3357.5	1.17875
3370.08	1.33911
3382.63	1.96309
3395.17	1.28653
3407.69	0.0921168
3420.18	0.0921168
3432.65	2.46209
3445.11	2.46209
3457.54	-0.262773
3469.95	-0.0993567
3482.35	0.673251
3494.72	2.49953
3507.07	1.83356
3519.41	1.6721
3531.72	-0.869594
3544.01	0.944988
3556.28	1.90699
3568.54	0.464462
3580.77	1.8505
3592.98	2.34751
3605.18	0.543507
3617.35	1.9725
3629.5	1.86047
3641.64	2.60692
3653.75	1.57591
3665.85	2.63567
3677.92	1.91813
3689.98	1.3319
3699.01	2.23541